wavelength,relint
10.4838,3.0
10.4972,3.0
10.6285,3.0
10.6418,3.0
10.7947,4.0
10.8381,13.0
10.8495,3.0
10.8519,24.0
10.8533,7.0
10.8584,13.0
10.862,7.0
10.9463,9.0
10.9742,4.0
11.0103,4.0
11.0205,4.0
11.0593,4.0
11.1604,26.0
11.1638,14.0
11.1663,4.0
11.1691,4.0
11.1742,46.0
11.1742,46.0
11.1767,7.0
11.1767,7.0
11.1812,4.0
11.1849,14.0
11.203,7.0
11.3861,17.0
11.3964,32.0
11.4356,9.0
11.449,5.0
11.5033,64.0
11.5164,5.0
11.5281,10.0
11.6715,9.0
11.6809,32.0
11.6836,4.0
11.6853,4.0
11.6882,9.0
11.6951,9.0
11.697,57.0
11.6993,57.0
11.7034,5.0
11.7104,98.0
11.7135,33.0
11.7144,18.0
11.7174,18.0
11.7281,18.0
11.731,18.0
11.731,18.0
11.7335,18.0
11.7432,5.0
11.7459,5.0
11.7512,10.0
11.761,5.0
11.9144,42.0
11.9144,42.0
11.924,43.0
11.9273,23.0
11.9422,23.0
11.9435,23.0
11.9482,6.0
11.9524,12.0
11.9541,12.0
11.9561,6.0
11.9587,6.0
11.9623,12.0
11.9686,130.0
11.9686,130.0
11.9692,13.0
11.9715,45.0
11.9785,45.0
11.9813,13.0
11.9846,45.0
11.9896,6.0
11.9978,6.0
12.003,11.0
12.0131,13.0
12.0181,11.0
12.0214,22.0
12.0401,41.0
12.0636,370.0
12.0789,7.0
12.0872,15.0
12.0915,7.0
12.109,53.0
12.109,53.0
12.1183,12.0
12.1304,54.0
12.1331,6.0
12.1408,15.0
12.149,12.0
12.1555,6.0
12.1952,7.0
12.2335,15.0
12.237,13.0
12.2392,15.0
12.252,30.0
12.3029,27.0
12.313,31.0
12.3496,28.0
12.3667,8.0
12.3709,17.0
12.3822,7.0
12.403,110.0
12.4058,9.0
12.412,18.0
12.425,18.0
12.4384,37.0
12.4384,37.0
12.4415,35.0
12.4425,16.0
12.4547,36.0
12.4586,18.0
12.4648,18.0
12.4779,31.0
12.4779,31.0
12.4979,32.0
12.5266,180.0
12.5431,60.0
12.5447,71.0
12.5508,39.0
12.5524,180.0
12.5565,20.0
12.5596,17.0
12.564,10.0
12.5798,18.0
12.5846,10.0
12.5922,34.0
12.6032,130.0
12.6088,9.0
12.6166,41.0
12.6453,140.0
12.6559,230.0
12.6705,19.0
12.6743,9.0
12.6768,19.0
12.6855,120.0
12.6875,10.0
12.6898,10.0
12.6913,38.0
12.6913,38.0
12.7026,210.0
12.7069,20.0
12.7118,750.0
12.7169,23.0
12.723,39.0
12.7258,1100.0
12.7278,39.0
12.7324,350.0
12.7388,520.0
12.7429,350.0
12.7429,350.0
12.7559,780.0
12.7604,40.0
12.7636,1100.0
12.7645,350.0
12.7694,360.0
12.7694,360.0
12.7763,21.0
12.7852,22.0
12.7867,360.0
12.8147,840.0
12.824,49.0
12.8368,79.0
12.8417,14.0
12.8449,23.0
12.8538,11.0
12.8638,140.0
12.8659,150.0
12.8682,740.0
12.8753,450.0
12.8852,46.0
12.9278,30.0
12.933,470.0
12.9579,490.0
12.973,310.0
12.9777,57.0
12.9789,14.0
12.9822,15.0
12.9872,670.0
12.998,1100.0
12.9996,58.0
13.005,190.0
13.005,190.0
13.0112,110.0
13.0221,330.0
13.0226,330.0
13.0226,330.0
13.0248,1900.0
13.0257,330.0
13.0277,200.0
13.0336,60.0
13.0374,540.0
13.0419,62.0
13.0467,100.0
13.0481,62.0
13.0608,16.0
13.0623,16.0
13.0779,2500.0
13.0838,33.0
13.1193,2600.0
13.1318,890.0
13.1713,76.0
13.1782,19.0
13.212,260.0
13.2355,150.0
13.2407,1600.0
13.2593,150.0
13.2667,84.0
13.2792,150.0
13.3055,150.0
13.3123,150.0
13.3165,150.0
13.3274,160.0
13.3424,23.0
13.367,140.0
13.3691,280.0
13.3842,780.0
13.3874,140.0
13.3899,680.0
13.4063,430.0
13.4128,250.0
13.494,110.0
13.6671,120.0
13.7384,1200.0
13.764,440.0
13.7802,71.0
13.7833,140.0
13.7907,72.0
13.8191,1100.0
15.0186,250.0
15.0282,490.0
15.0403,260.0
15.0521,930.0
15.053,940.0
15.0807,4500.0
15.0852,4600.0
15.1023,11000.0
15.1046,540.0
15.1145,1800.0
15.1432,1800.0
15.1488,1000.0
15.1512,3100.0
15.1675,5000.0
15.1754,300.0
15.1782,7800.0
15.1971,310.0
15.2072,2000.0
15.3663,210.0
15.3747,210.0
15.4042,1600.0
15.4216,220.0
15.4271,450.0
15.4307,880.0
15.4335,12000.0
15.4363,1600.0
15.4447,230.0
15.4565,1700.0
15.465,8100.0
15.4705,7900.0
15.4848,1700.0
15.4888,470.0
15.4921,5100.0
15.4941,3100.0
15.4949,8300.0
15.5124,250.0
15.515,250.0
15.5247,980.0
15.5414,250.0
15.5549,250.0
15.5619,260.0
15.5632,250.0
15.5994,15000.0
15.6808,630.0
15.7112,1300.0
15.8168,27000.0
15.8481,19000.0
16.31824,27000.0
16.42014,2800.0
16.45101,5500.0
16.49551,2900.0
16.50874,20000.0
16.5442,370.0
16.54891,35000.0
16.55443,1200.0
16.56298,11000.0
16.5657,6000.0
16.5721,820.0
16.57633,12000.0
16.59184,40000.0
16.59967,20000.0
16.60079,14000.0
16.63642,57000.0
16.70472,4600.0
16.76668,57000.0
17.04167,4100.0
17.06638,3800.0
17.11658,8000.0
17.12789,5000.0
17.14312,17000.0
17.17786,30000.0
17.20688,26000.0
17.28341,1000.0
17.29486,940.0
17.32011,3900.0
17.3441,95000.0
17.63441,31000.0
17.65985,24000.0
17.6743,180000.0
17.69047,9700.0
17.71724,92000.0
17.72368,6900.0
17.7331,39000.0
17.75021,14000.0
17.75533,18000.0
17.97204,1300.0
18.04766,5400.0
18.07575,4800.0
18.1103,5800.0
18.13057,1900.0
18.16449,3500.0
18.20698,18000.0
18.24063,9900.0
18.27387,16000.0
18.35375,18000.0
18.38232,45000.0
18.38232,45000.0
18.38815,7500.0
18.41093,5000.0
18.47507,14000.0
18.48845,12000.0
18.51745,8300.0
18.5458,2000.0
18.55463,75000.0
18.64782,3500.0
18.66554,74000.0
18.68658,34000.0
18.76896,12000.0
18.7988,10000.0
18.81235,10000.0
18.83943,43000.0
18.85755,50000.0
18.93283,12000.0
18.94508,30000.0
18.97532,3900.0
19.37435,3000.0
19.47699,6200.0
19.5172,1900.0
19.53914,160000.0
19.54808,140000.0
19.60492,67000.0
19.62137,110000.0
19.64272,15000.0
19.64535,6800.0
19.69205,6100.0
20.0542,890.0
20.1733,790.0
20.18597,7800.0
20.23806,1800.0
20.4581,260.0
20.60965,1100.0
20.77118,39000.0
20.78311,200.0
20.78311,200.0
20.81668,8900.0
20.87239,310.0
20.94159,75000.0
20.97306,15000.0
20.99124,52000.0
20.99764,7500.0
21.19296,10000.0
21.25073,1500.0
21.26624,29000.0
21.38914,1600.0
21.6306,240.0
21.65886,10000.0
21.69044,1700.0
21.7621,1500.0
21.8121,560.0
22.23931,900.0
22.36426,10000.0
22.54086,22000.0
22.5509,790.0
22.58506,8800.0
22.62223,10000.0
22.6414,2100.0
22.7918,260.0
22.8584,540.0
22.98277,5200.0
23.10447,16000.0
23.12917,14000.0
23.16656,28000.0
23.1693,560.0
23.17292,88000.0
23.18533,18000.0
23.20477,5300.0
23.22568,37000.0
23.234,7000.0
23.24431,49000.0
23.25446,55000.0
23.261,2000.0
23.27223,460.0
23.274,40000.0
23.29474,8100.0
23.30182,88000.0
23.3036,34000.0
23.331,62000.0
23.37642,9500.0
23.43389,54000.0
23.47583,36000.0
23.47951,25000.0
23.50823,1400.0
23.56653,34000.0
23.57396,1200.0
23.58085,25000.0
23.58859,2100.0
23.60834,29000.0
23.6176,1100.0
23.62466,4800.0
23.64524,97000.0
23.65966,26000.0
23.67789,4200.0
23.68337,14000.0
23.68722,7200.0
23.80499,1300.0
23.83931,8100.0
23.89299,1200.0
23.97346,17000.0
23.98601,14000.0
24.00546,14000.0
24.00829,9800.0
24.02236,67000.0
24.02886,3500.0
24.05733,17000.0
24.1464,4300.0
24.1668,4200.0
24.18499,2000.0
24.22839,10000.0
24.31749,7900.0
24.32596,2900.0
24.33777,130000.0
24.36781,6900.0
24.37043,19000.0
24.403,630.0
24.40968,11000.0
24.45401,19000.0
24.45401,19000.0
24.51524,52000.0
24.5229,950.0
24.54876,26000.0
24.56039,16000.0
24.59374,21000.0
24.59982,4900.0
24.68568,4600.0
24.69426,1800.0
24.69426,1800.0
24.70969,1900.0
24.74572,9000.0
24.75402,6600.0
24.8091,520.0
24.84259,910.0
24.8634,99.0
24.87423,680.0
24.9295,5.0
25.3521,23.0
26.0672,85.0
26.56968,20000.0
27.03629,130.0
27.1692,8.0
28.9688,2.0
28.9845,2.0
29.0306,3.0
67.7885,25.0
67.9819,12.0
68.1416,120.0
68.5717,290.0
69.2318,220.0
70.0808,24.0
70.4158,170.0
70.4447,47.0
70.9202,110.0
71.5575,610.0
71.8181,420.0
72.8082,460.0
73.2133,35.0
73.5552,160.0
73.8852,640.0
73.9516,310.0
74.0022,1200.0
74.0764,520.0
74.1134,530.0
74.1134,530.0
74.2565,320.0
74.4783,20.0
74.5363,360.0
74.8932,460.0
75.7162,600.0
78.2648,240.0
78.4588,340.0
78.4588,270.0
79.4,990.0
80.1529,130.0
80.1683,390.0
80.4119,820.0
80.5443,200.0
84.9236,190.0
86.0035,49.0
88.3407,170.0
88.4703,210.0
90.24,52.0
95.04,38.0
99.13,25.0
99.13,25.0
99.13,25.0
99.96,110.0
99.96,110.0
100.17,120.0
101.026,6.0
101.6072,8.0
104.88,190.0
106.65,32.0
107.3953,1300.0
108.0637,330.0
108.0735,310.0
109.5343,1600.0
111.758,2400.0
114.1435,2500.0
114.5037,1200.0
114.6899,170.0
116.3882,710.0
116.6187,1200.0
116.6301,340.0
117.1658,170.0
117.3777,250.0
117.3921,220.0
117.4051,380.0
118.0819,470.0
120.8372,250.0
122.6651,340.0
123.9688,240.0
126.3843,52.0
126.5011,290.0
126.5989,630.0
127.0141,230.0
127.7788,150.0
133.2381,790.0
201.537,67.0
218.269,2.0
358.655,556.0
375.917,838.0
469.879,32.0
489.363,59.0
494.267,127.0
498.859,60.0
572.115,534.0
