wavelength,relint
26.9993,10.0
27.0947,7.0
27.1373,5.0
27.394,12.0
27.4023,12.0
27.4931,20.0
27.5003,20.0
27.5218,5.0
28.1691,25.0
28.1788,25.0
28.2709,35.0
28.2803,35.0
28.3258,15.0
30.0153,160.0
30.0202,160.0
30.1318,90.0
30.1436,100.0
30.2446,60.0
36.5584,7.0
37.2075,300.0
37.534,40.0
37.573,45.0
37.6379,350.0
37.6921,45.0
38.3399,12.0
38.9362,7.0
39.4904,2.0
47.9385,2.0
51.6715,5.0
53.4714,10.0
54.4509,30.0
57.3639,5.0
61.7415,7.0
61.9876,10.0
62.3704,5.0
63.8832,5.0
64.2524,7.0
64.44,30.0
65.9378,5.0
68.1896,7.0
68.9605,20.0
69.1799,12.0
70.6677,7.0
71.9891,7.0
74.5157,50.0
75.7331,60.0
75.7892,45.0
75.9225,60.0
76.5788,20.0
76.6429,20.0
77.6668,20.0
77.8413,40.0
78.0422,12.0
78.1171,12.0
78.1752,20.0
78.29,30.0
78.5088,40.0
78.6009,30.0
78.6477,15.0
78.8369,25.0
78.9177,20.0
79.0546,70.0
79.6301,20.0
79.8013,15.0
80.2197,20.0
80.9413,15.0
81.5631,20.0
83.0105,20.0
83.1528,30.0
84.4341,12.0
86.8738,30.0
87.1473,12.0
89.3899,25.0
89.5054,20.0
89.9342,20.0
90.0904,30.0
90.2763,25.0
91.1067,25.0
91.1815,20.0
91.5217,20.0
92.2829,25.0
94.8887,20.0
95.257,25.0
95.4299,20.0
95.6676,20.0
95.802,20.0
95.845,30.0
96.0686,20.0
96.6112,25.0
96.9865,30.0
97.8207,50.0
99.0613,45.0
99.3054,40.0
100.6185,30.0
100.9428,30.0
103.4162,45.0
105.9066,35.0
106.7165,35.0
106.8016,40.0
108.0885,45.0
108.1079,30.0
108.1836,35.0
108.3594,20.0
108.5003,40.0
108.7238,20.0
108.7701,15.0
108.7895,25.0
108.8699,50.0
109.3447,25.0
112.5502,50.0
113.339,160.0
113.702,60.0
114.3185,60.0
114.6157,60.0
114.7967,60.0
115.7291,40.0
116.5548,60.0
117.0046,35.0
117.2698,50.0
117.2969,40.0
117.6794,160.0
117.7238,60.0
117.7426,60.0
117.8256,130.0
117.8777,60.0
117.9212,60.0
117.9623,40.0
118.0153,60.0
118.3109,70.0
118.3498,30.0
118.4421,70.0
119.8237,25.0
119.8767,40.0
119.9941,35.0
120.0079,30.0
121.3998,30.0
121.7472,45.0
124.2048,15.0
124.265,20.0
124.3427,30.0
124.4511,20.0
125.4813,30.0
125.5354,25.0
126.4891,12.0
126.8947,25.0
128.2348,15.0
128.5384,30.0
129.3974,60.0
129.4696,15.0
129.5164,30.0
129.7856,12.0
129.8142,15.0
129.9018,30.0
129.9895,60.0
130.3957,15.0
130.4546,15.0
130.6618,20.0
130.7936,10.0
131.0078,45.0
131.1158,10.0
131.2026,30.0
131.2587,20.0
131.653,12.0
131.9815,30.0
132.2295,12.0
132.7742,50.0
132.8497,12.0
132.9354,30.0
133.6112,25.0
133.8575,35.0
134.1369,35.0
134.2401,20.0
134.721,35.0
134.7543,45.0
134.9602,15.0
134.9876,25.0
135.1799,12.0
135.2118,35.0
135.2904,130.0
135.9055,20.0
136.1217,15.0
136.6242,15.0
137.3451,15.0
137.4688,90.0
137.5618,15.0
138.0623,12.0
138.1236,30.0
138.1633,12.0
138.4794,10.0
138.5296,10.0
138.5465,12.0
138.6076,10.0
139.2072,15.0
139.2316,10.0
139.294,15.0
139.5193,10.0
139.8143,12.0
139.907,30.0
139.986,12.0
140.4675,90.0
140.685,15.0
140.7308,25.0
141.0374,12.0
141.1536,7.0
141.5762,10.0
141.8579,20.0
141.9311,15.0
142.0216,12.0
142.1889,7.0
142.2996,12.0
142.5499,7.0
142.6048,7.0
142.8889,7.0
142.9963,10.0
143.0166,7.0
143.1015,7.0
143.1228,15.0
143.5054,10.0
143.5776,10.0
144.2907,30.0
145.4976,15.0
145.5969,12.0
145.9748,15.0
146.0775,10.0
146.216,10.0
147.0916,10.0
147.2642,7.0
147.3826,12.0
147.4687,12.0
147.5411,15.0
147.553,15.0
147.6301,10.0
147.6673,10.0
148.1578,15.0
148.357,15.0
148.5443,20.0
148.5987,25.0
148.63,25.0
148.9261,50.0
149.2371,20.0
149.4943,20.0
149.5212,45.0
149.6011,40.0
149.7731,45.0
150.0006,25.0
150.1427,35.0
150.1995,25.0
150.2661,30.0
150.3469,35.0
150.6407,80.0
150.6914,60.0
150.7869,35.0
150.8981,30.0
151.0518,35.0
151.0701,35.0
151.104,40.0
151.3102,70.0
151.3487,50.0
151.3953,35.0
151.4241,30.0
151.4632,30.0
151.5229,30.0
151.5709,30.0
151.6219,25.0
151.7604,30.0
151.8042,30.0
151.8505,35.0
151.8664,35.0
151.9005,40.0
151.9629,60.0
152.3388,30.0
152.5311,30.0
152.6021,15.0
152.7555,15.0
152.7985,20.0
152.8532,20.0
152.9208,15.0
153.1497,20.0
153.3176,10.0
153.4163,10.0
153.4538,25.0
153.4737,12.0
153.9895,12.0
154.0688,7.0
154.3665,12.0
154.7066,15.0
154.9392,20.0
155.0095,15.0
155.0348,20.0
155.1793,20.0
155.2203,20.0
155.637,15.0
155.6753,12.0
155.7557,7.0
155.8678,7.0
156.5838,12.0
156.6262,12.0
156.8673,10.0
156.9264,20.0
157.0024,12.0
157.1205,7.0
157.343,10.0
157.411,12.0
157.4664,7.0
157.5039,10.0
157.5749,15.0
157.6118,12.0
157.918,15.0
157.9408,12.0
157.9993,20.0
158.1108,25.0
158.1835,20.0
158.4173,20.0
158.708,30.0
158.7807,5.0
158.8764,15.0
158.8983,7.0
159.1321,15.0
159.1712,7.0
159.4752,2.0
160.4888,25.0
160.7514,45.0
161.7896,10.0
162.194,12.0
162.2347,12.0
162.6372,20.0
163.0579,1.0
163.4057,15.0
163.5194,20.0
163.5948,10.0
163.7293,10.0
163.926,12.0
164.6018,12.0
165.1601,5.0
165.2921,20.0
165.7918,60.0
166.8569,35.0
166.9817,20.0
167.1886,35.0
167.3649,15.0
174.3309,15.0
174.6996,0.0
175.2185,12.0
175.9572,30.0
176.3325,7.0
176.3841,30.0
176.8603,7.0
176.9878,30.0
177.355,12.0
177.6571,90.0
177.8243,40.0
177.8905,0.0
177.9906,0.0
178.3043,60.0
178.3475,15.0
178.5989,12.0
178.7189,80.0
178.8846,45.0
179.0565,2.0
179.1224,35.0
179.1862,30.0
179.5772,1.0
179.841,80.0
180.0048,25.0
180.4623,30.0
180.5998,12.0
180.6061,10.0
180.7092,90.0
180.8375,60.0
181.4474,25.0
181.8473,5.0
181.8628,7.0
181.9024,20.0
182.1695,50.0
182.2568,5.0
182.4098,0.0
182.573,7.0
183.0124,20.0
183.1172,12.0
183.1402,1.0
183.3873,45.0
183.5217,80.0
183.6367,2.0
183.7522,15.0
183.789,45.0
183.927,20.0
183.9835,25.0
184.0032,20.0
184.1822,60.0
184.5016,70.0
185.015,45.0
185.1194,70.0
185.3166,80.0
185.7265,25.0
185.7576,40.0
186.2832,20.0
186.309,25.0
186.3898,15.0
186.5139,35.0
186.5433,20.0
186.6452,45.0
187.1517,40.0
187.3369,45.0
187.4098,15.0
187.5075,60.0
187.7365,20.0
188.004,25.0
188.109,35.0
188.1912,160.0
188.346,20.0
188.3804,20.0
188.5091,50.0
188.5742,45.0
188.9317,30.0
190.3831,15.0
190.6112,15.0
194.6206,35.0
194.8531,7.0
196.7634,90.0
199.1001,60.0
199.1718,20.0
199.9807,30.0
200.9567,7.0
201.0093,10.0
201.7137,160.0
201.8409,40.0
201.9219,25.0
205.0877,80.0
205.9617,2.0
207.7178,20.0
210.4516,7.0
210.9585,7.0
211.4551,20.0
211.6143,60.0
211.9428,15.0
212.7627,35.0
215.5774,60.0
216.6769,50.0
217.249,0.0
221.3281,5.0
221.656,7.0
222.8529,80.0
222.9156,30.0
223.1399,15.0
223.5549,15.0
224.7464,25.0
226.0495,10.0
226.0495,10.0
226.2665,5.0
226.2665,5.0
227.3808,10.0
228.6264,15.0
228.7822,7.0
229.1198,2.0
230.2923,20.0
230.3263,20.0
230.3582,80.0
230.6968,60.0
231.5647,300.0
231.8687,7.0
232.4927,15.0
232.8805,30.0
233.1444,15.0
233.2109,30.0
233.4403,40.0
233.7377,15.0
233.9724,20.0
235.5743,15.0
236.851,20.0
237.2658,20.0
237.3329,25.0
237.5731,35.0
237.8039,20.0
237.9218,20.0
238.2291,25.0
238.3918,25.0
238.5609,25.0
238.6289,35.0
238.7022,350.0
238.7817,35.0
238.8289,60.0
239.0452,30.0
239.2324,35.0
239.3612,350.0
239.5642,30.0
239.6559,30.0
240.1014,100.0
240.2019,45.0
240.3299,30.0
240.5938,30.0
240.9098,30.0
241.0549,30.0
241.2544,30.0
241.7121,30.0
241.9965,70.0
242.0991,300.0
242.2071,35.0
242.3724,60.0
242.4729,300.0
242.7437,35.0
242.7968,35.0
242.9322,35.0
243.384,35.0
243.4541,35.0
243.7112,35.0
243.9144,200.0
244.1495,250.0
244.2513,80.0
244.3541,45.0
244.4439,35.0
244.5779,40.0
244.62,40.0
244.7195,35.0
244.8715,200.0
244.9773,40.0
245.218,200.0
245.2657,100.0
245.3718,15.0
245.4628,60.0
245.7477,20.0
246.0776,40.0
246.6368,20.0
249.3149,1000.0
249.4661,130.0
249.784,130.0
249.8124,70.0
250.2839,300.0
250.4285,25.0
250.4791,25.0
250.6301,450.0
251.4412,45.0
251.5455,600.0
252.5647,50.0
252.7705,40.0
253.1538,600.0
254.5095,25.0
254.6279,35.0
254.6939,20.0
255.8022,15.0
255.9971,10.0
256.5476,15.0
256.8104,12.0
257.1103,30.0
257.391,35.0
257.5703,15.0
257.7645,15.0
258.6308,550.0
258.9269,60.0
259.3269,40.0
259.4958,600.0
260.0325,45.0
260.2974,25.0
260.3563,130.0
260.5388,45.0
260.7393,80.0
260.8856,30.0
261.1812,850.0
261.3486,60.0
261.6833,25.0
262.5515,60.0
262.6368,40.0
262.7414,300.0
262.9909,60.0
263.0766,35.0
263.0766,35.0
263.1812,300.0
263.6127,35.0
263.7505,90.0
264.7785,30.0
264.8532,160.0
265.0534,35.0
265.1313,200.0
265.243,80.0
265.4331,50.0
265.9029,60.0
265.981,200.0
266.0997,850.0
266.2394,70.0
266.346,200.0
266.4358,80.0
266.4358,80.0
266.6458,350.0
266.7395,90.0
266.9372,60.0
267.0027,100.0
267.0406,130.0
267.1826,1000.0
267.2027,60.0
267.4035,200.0
267.5266,50.0
267.5941,60.0
267.8085,850.0
267.9252,150.0
268.2194,45.0
268.3622,25.0
268.5083,20.0
269.3712,15.0
269.8048,15.0
271.008,25.0
271.473,70.0
272.05,25.0
272.393,45.0
273.182,25.0
273.874,15.0
274.127,25.0
274.677,130.0
274.898,25.0
275.051,60.0
275.9797,35.0
276.1861,25.0
276.278,25.0
276.761,35.0
277.5113,20.0
278.17,15.0
278.578,15.0
278.611,15.0
278.849,70.0
278.935,20.0
279.286,15.0
279.9211,80.0
280.694,60.0
280.775,90.0
280.8706,650.0
280.952,850.0
281.064,130.0
281.143,80.0
281.184,160.0
281.39,250.0
281.721,50.0
281.8288,350.0
282.071,25.0
282.149,25.0
282.441,25.0
282.835,35.0
282.9868,600.0
283.192,35.0
283.226,35.0
283.361,45.0
283.607,80.0
283.9564,800.0
284.1724,1000.0
284.2762,30.0
284.863,60.0
284.911,40.0
285.002,35.0
285.072,35.0
285.116,40.0
285.6508,650.0
285.9488,800.0
286.1019,350.0
286.296,40.0
286.366,60.0
286.796,50.0
286.831,60.0
286.93,50.0
287.1275,750.0
287.2954,650.0
287.573,50.0
287.738,70.0
287.9041,130.0
288.1146,900.0
288.4249,90.0
288.6257,850.0
288.795,100.0
288.895,80.0
288.961,70.0
289.051,50.0
289.121,70.0
289.3949,700.0
289.661,60.0
289.74,70.0
290.1139,900.0
290.4716,800.0
290.4915,1100.0
290.74,250.0
290.752,250.0
290.856,160.0
291.752,1100.0
291.9049,1100.0
291.985,1200.0
292.0945,1300.0
292.3485,1000.0
293.0882,750.0
293.4079,850.0
293.555,130.0
293.7735,950.0
294.2657,450.0
294.5702,800.0
294.7449,950.0
295.1235,1200.0
295.2396,1100.0
296.0116,850.0
296.167,80.0
296.5742,450.0
296.848,80.0
296.897,90.0
297.0727,500.0
297.272,160.0
297.4235,600.0
297.4988,750.0
297.6686,400.0
297.7125,1000.0
297.9657,1100.0
298.0627,1100.0
298.6451,300.0
298.7213,300.0
299.689,40.0
300.086,130.0
300.292,130.0
300.4149,550.0
300.7442,750.0
300.9137,750.0
300.9482,450.0
301.151,60.0
301.31,160.0
301.5395,600.0
301.7341,450.0
301.8324,160.0
301.998,80.0
302.137,200.0
302.2348,160.0
302.4,130.0
302.531,60.0
302.7062,300.0
302.907,400.0
302.932,40.0
303.126,200.0
303.7076,400.0
303.872,350.0
304.013,160.0
304.2461,350.0
304.31,200.0
304.56,400.0
304.895,200.0
305.021,350.0
305.3666,550.0
305.5347,550.0
305.5822,45.0
305.6161,550.0
305.7375,550.0
305.795,550.0
305.872,550.0
306.0251,700.0
306.135,800.0
306.1792,25.0
306.4375,500.0
306.6223,500.0
306.6535,500.0
307.0829,350.0
307.4334,550.0
307.8752,170.0
308.0254,550.0
308.293,30.0
308.357,25.0
308.557,35.0
308.706,450.0
308.8263,450.0
308.999,130.0
309.2035,550.0
309.2732,550.0
309.3089,400.0
309.4449,650.0
309.467,200.0
309.5552,650.0
309.648,70.0
309.671,70.0
309.773,60.0
309.902,60.0
309.98,45.0
310.277,40.0
310.3578,500.0
310.4403,500.0
310.737,350.0
310.9538,300.0
311.023,130.0
311.1453,450.0
311.2924,70.0
311.3693,500.0
311.413,10.0
311.601,60.0
311.7231,300.0
311.8134,15.0
311.915,40.0
312.1759,350.0
312.2935,400.0
312.4415,1700.0
312.5212,600.0
312.644,100.0
312.9377,600.0
312.9821,80.0
313.23,80.0
313.5483,2500.0
313.7861,1700.0
313.894,100.0
314.052,35.0
314.095,35.0
314.121,35.0
314.182,30.0
314.267,35.0
314.5706,950.0
314.694,45.0
314.9283,2000.0
315.049,60.0
315.078,55.0
315.144,50.0
315.203,40.0
315.324,40.0
315.377,60.0
315.498,45.0
315.548,45.0
315.585,45.0
315.842,250.0
315.9527,70.0
316.1154,250.0
316.253,90.0
316.3246,350.0
316.3736,2000.0
316.525,70.0
316.636,30.0
316.677,30.0
316.7484,200.0
316.958,300.0
317.162,25.0
317.27,25.0
317.342,15.0
317.5086,700.0
317.9064,1000.0
318.094,160.0
318.624,40.0
318.778,80.0
318.8127,80.0
318.9002,200.0
318.979,1700.0
319.206,40.0
319.221,35.0
319.414,80.0
319.579,25.0
319.893,20.0
320.03,60.0
320.421,45.0
320.489,25.0
320.851,20.0
321.219,1600.0
321.282,200.0
321.477,130.0
321.6283,450.0
321.752,35.0
322.1175,60.0
322.147,30.0
322.234,40.0
322.3506,60.0
322.437,50.0
322.529,35.0
322.5977,450.0
322.911,80.0
323.141,45.0
323.4927,700.0
323.67,20.0
323.82,12.0
323.922,15.0
324.0324,40.0
324.206,15.0
324.452,15.0
324.488,20.0
324.742,40.0
324.791,20.0
324.846,35.0
325.0949,400.0
325.168,300.0
325.439,30.0
325.471,30.0
325.511,40.0
325.7964,1500.0
326.021,650.0
326.167,30.0
326.238,30.0
326.359,130.0
326.831,25.0
327.158,25.0
327.274,70.0
327.422,950.0
327.802,40.0
327.877,35.0
328.025,35.0
328.278,90.0
328.5602,1700.0
328.934,60.0
329.044,80.0
329.137,50.0
329.25,80.0
329.474,60.0
329.565,60.0
329.714,70.0
329.831,70.0
329.968,130.0
330.1349,1700.0
330.4957,1500.0
330.788,200.0
331.268,60.0
331.376,90.0
331.408,70.0
331.8039,1000.0
332.022,60.0
332.059,60.0
332.393,60.0
332.642,60.0
332.689,100.0
332.7689,950.0
333.307,60.0
333.368,60.0
333.445,70.0
333.801,70.0
333.871,50.0
333.921,40.0
333.982,45.0
334.177,80.0
334.226,100.0
334.317,70.0
334.629,60.0
334.757,50.0
334.947,60.0
335.196,90.0
335.389,300.0
335.416,300.0
335.576,50.0
336.019,500.0
336.233,160.0
336.279,160.0
336.401,130.0
336.474,130.0
336.8632,160.0
336.939,200.0
337.222,160.0
337.48,50.0
337.548,50.0
337.871,35.0
338.033,40.0
338.475,35.0
338.727,25.0
338.785,50.0
339.538,40.0
339.578,40.0
339.88,50.0
339.926,60.0
340.0093,200.0
341.083,12.0
342.135,60.0
342.359,70.0
342.403,130.0
342.53,30.0
343.171,25.0
343.349,40.0
343.925,30.0
344.012,35.0
344.336,50.0
345.017,20.0
345.088,20.0
345.528,25.0
345.703,15.0
345.895,15.0
346.2491,450.0
346.871,25.0
347.321,35.0
347.581,70.0
348.2,40.0
348.302,40.0
348.574,20.0
349.826,160.0
351.695,60.0
352.529,60.0
352.797,80.0
352.911,130.0
353.048,160.0
353.3052,1500.0
354.023,70.0
354.136,60.0
355.057,60.0
355.192,45.0
355.25,60.0
355.412,60.0
356.618,130.0
357.048,130.0
359.742,35.0
359.837,25.0
360.955,60.0
361.558,40.0
363.1272,1200.0
366.865,30.0
369.42,25.0
370.1,30.0
370.158,30.0
371.107,850.0
374.333,45.0
379.825,130.0
380.653,130.0
381.312,100.0
381.461,60.0
382.05,70.0
385.832,500.0
387.126,300.0
387.896,160.0
388.722,90.0
388.887,130.0
389.578,130.0
389.692,70.0
390.167,90.0
390.369,80.0
390.474,100.0
391.026,100.0
392.671,100.0
393.696,100.0
393.945,60.0
394.15,80.0
394.298,130.0
398.585,30.0
399.697,130.0
399.878,70.0
400.363,45.0
400.498,100.0
402.793,40.0
405.6007,50.0
405.967,45.0
408.1369,200.0
408.7603,130.0
410.735,35.0
411.3704,300.0
412.3082,250.0
412.703,80.0
414.907,90.0
416.527,40.0
416.803,60.0
417.193,160.0
417.288,160.0
417.413,150.0
419.402,60.0
420.2764,130.0
420.484,60.0
420.872,80.0
421.627,160.0
423.096,50.0
423.272,130.0
423.326,250.0
424.0903,250.0
424.281,70.0
424.341,70.0
424.683,50.0
426.058,200.0
429.038,60.0
429.2488,250.0
429.2864,250.0
430.219,70.0
430.453,60.0
430.587,60.0
430.675,70.0
430.8817,250.0
430.9043,250.0
432.0751,5.0
432.0913,250.0
432.698,130.0
433.442,80.0
433.7294,250.0
433.752,5.0
434.4108,250.0
435.36,60.0
436.86,200.0
437.5215,200.0
437.819,60.0
438.4194,160.0
438.7489,200.0
439.2814,250.0
439.6317,160.0
440.141,90.0
440.5113,200.0
443.518,60.0
443.847,130.0
444.1,100.0
444.259,160.0
444.32,130.0
444.5928,160.0
444.6695,200.0
444.7411,200.0
445.183,60.0
445.4564,5.0
445.4736,200.0
445.5224,200.0
445.7025,20.0
445.7223,200.0
445.951,80.0
447.21,100.0
447.274,90.0
447.4633,200.0
447.8623,100.0
447.8797,200.0
448.0423,130.0
448.1664,200.0
448.779,130.0
449.0162,200.0
449.0869,200.0
449.1037,10.0
449.615,130.0
449.9431,20.0
449.9615,200.0
450.3693,130.0
450.6972,200.0
450.8997,130.0
451.0475,160.0
451.441,60.0
451.738,130.0
451.9201,200.0
452.4977,200.0
452.661,40.0
452.931,90.0
453.3323,200.0
453.803,60.0
454.7845,80.0
454.95,45.0
455.1518,200.0
455.1787,80.0
455.832,50.0
456.907,70.0
457.0443,130.0
457.355,50.0
457.842,60.0
458.4383,80.0
459.0933,160.0
459.819,50.0
459.974,60.0
461.338,130.0
461.455,50.0
463.394,50.0
464.62,70.0
468.964,50.0
472.2333,160.0
472.86,40.0
473.1141,160.0
473.2502,100.0
473.374,45.0
474.1669,160.0
474.985,40.0
475.771,50.0
476.131,45.0
476.8902,160.0
478.879,100.0
479.449,45.0
480.282,45.0
481.003,45.0
481.475,50.0
483.5259,50.0
484.188,45.0
488.54,45.0
490.793,40.0
492.38,45.0
497.326,60.0
513.375,100.0
514.311,60.0
518.715,45.0
519.165,100.0
519.523,100.0
520.333,50.0
520.608,45.0
520.855,80.0
520.994,40.0
521.349,45.0
522.819,35.0
523.531,45.0
523.943,45.0
526.066,50.0
527.572,45.0
529.165,70.0
530.447,40.0
530.736,45.0
530.914,50.0
536.041,50.0
536.246,40.0
539.063,60.0
539.063,60.0
540.0464,70.0
541.4546,90.0
541.4546,90.0
544.12,80.0
548.59,35.0
552.111,80.0
553.372,50.0
559.83,50.0
560.774,50.0
565.563,80.0
566.478,100.0
570.007,130.0
570.6,130.0
570.812,130.0
570.961,130.0
571.617,100.0
572.138,100.0
573.194,60.0
574.811,50.0
576.537,60.0
582.684,70.0
583.687,90.0
592.135,130.0
594.09,130.0
597.359,70.0
602.667,50.0
606.327,60.0
612.146,50.0
617.525,60.0
618.766,60.0
619.926,70.0
623.222,60.0
623.468,70.0
626.001,80.0
627.474,80.0
629.466,70.0
631.08,60.0
635.283,60.0
635.805,60.0
635.805,60.0
636.115,70.0
636.641,70.0
636.641,70.0
637.891,60.0
640.479,60.0
643.875,50.0
644.485,50.0
645.076,45.0
646.221,60.0
647.133,50.0
647.529,50.0
651.421,90.0
652.468,80.0
652.468,80.0
653.0698,130.0
653.0698,130.0
654.4036,130.0
654.5753,130.0
655.2432,80.0
656.585,15.0
656.585,15.0
660.93,60.0
665.15,70.0
668.9,45.0
677.41,45.0
678.95,40.0
683.78,25.0
