wavelength,relint
19.9154,2600.0
19.9504,2100.0
19.97415,1100.0
19.9966,1200.0
22.75655,33000.0
22.80309,23000.0
22.83454,8100.0
22.85464,4500.0
22.86435,930.0
23.61097,1500.0
23.6467,790.0
23.66057,520.0
23.67161,600.0
23.68024,330.0
23.6932,280.0
30.40177,470.0
30.4702,330.0
30.5129,190.0
30.53049,140.0
30.66687,200.0
30.67763,250.0
30.74923,210.0
30.98106,330.0
31.00705,210.0
31.07911,470.0
31.08465,250.0
31.10236,27.0
31.1547,270.0
31.24123,370.0
31.25195,330.0
31.268,210.0
31.28389,120.0
31.29622,260.0
31.39927,250.0
31.50824,160.0
31.57121,1500.0
31.5829,540.0
31.59054,340.0
31.59686,370.0
31.61126,670.0
31.64279,390.0
31.64676,430.0
31.68102,250.0
31.6866,320.0
31.70373,220.0
31.7291,620.0
31.74019,630.0
31.78648,190.0
31.82595,100.0
31.8528,56.0
31.87032,40.0
31.87657,560.0
31.90153,130.0
31.90307,150.0
31.91625,230.0
31.94144,920.0
31.95256,480.0
32.01106,68.0
32.1102,260.0
32.13854,140.0
32.15348,130.0
32.31126,85.0
32.32077,340.0
32.33937,230.0
32.4172,190.0
32.446,230.0
32.49359,700.0
32.65882,520.0
32.68519,400.0
33.00432,260.0
33.01582,300.0
33.08204,230.0
33.10167,270.0
33.1113,190.0
33.1113,190.0
33.13704,170.0
33.15067,280.0
33.15711,210.0
33.22928,340.0
33.23163,210.0
33.23448,140.0
33.24711,320.0
33.25277,280.0
33.2788,460.0
33.2788,460.0
33.41164,230.0
33.44791,160.0
33.53951,580.0
33.54777,500.0
33.55293,300.0
33.55933,300.0
33.57182,1800.0
33.58508,280.0
33.60715,170.0
33.6154,290.0
33.63006,890.0
33.65043,310.0
33.65755,430.0
33.67917,2200.0
33.68181,1400.0
33.69304,430.0
33.7184,460.0
33.72358,230.0
33.72764,250.0
33.73152,270.0
33.74606,470.0
33.76227,340.0
33.76965,420.0
33.77612,490.0
33.78042,440.0
33.792,250.0
33.792,250.0
33.81983,850.0
33.83569,230.0
33.83821,400.0
33.84733,1200.0
33.85693,320.0
33.87381,120.0
33.88193,540.0
33.88864,640.0
33.90521,220.0
33.92767,59.0
33.96743,86.0
34.00786,840.0
34.0189,200.0
34.0189,200.0
34.04868,370.0
34.05161,860.0
34.06533,410.0
34.1068,110.0
34.1068,110.0
34.13511,590.0
34.1589,330.0
34.16738,230.0
34.17008,560.0
34.17681,410.0
34.1832,1100.0
34.18583,460.0
34.209,760.0
34.21355,480.0
34.22146,430.0
34.2506,1000.0
34.2506,1000.0
34.2506,1000.0
34.25454,510.0
34.25923,1100.0
34.27284,370.0
34.27901,640.0
34.29105,850.0
34.2976,710.0
34.2996,390.0
34.30566,1100.0
34.32153,140.0
34.32562,170.0
34.3385,450.0
34.34541,890.0
34.3503,590.0
34.37108,560.0
34.37391,410.0
34.38831,840.0
34.40535,540.0
34.42001,500.0
34.42336,1600.0
34.44381,300.0
34.45711,2000.0
34.4767,1200.0
34.4767,1200.0
34.48102,430.0
34.49465,820.0
34.4986,990.0
34.4986,990.0
34.50106,880.0
34.512,1400.0
34.512,1400.0
34.516,340.0
34.52195,690.0
34.52869,420.0
34.5345,1100.0
34.5345,1100.0
34.5406,1400.0
34.5406,1400.0
34.5406,1400.0
34.54692,570.0
34.5576,1700.0
34.5576,1700.0
34.57014,370.0
34.58431,340.0
34.59385,240.0
34.61653,400.0
34.63093,390.0
34.63273,330.0
34.64172,490.0
34.65528,290.0
34.66325,160.0
34.70641,600.0
34.7275,2300.0
34.7275,2300.0
34.7397,700.0
34.74215,1100.0
34.7456,4100.0
34.7456,4100.0
34.75921,870.0
34.78114,2500.0
34.81023,3900.0
34.82777,1900.0
34.83469,540.0
34.8375,520.0
34.8409,640.0
34.8409,640.0
34.84982,780.0
34.85412,570.0
34.85633,480.0
34.86739,1000.0
34.87524,330.0
34.8786,360.0
34.8786,360.0
34.88362,620.0
34.8883,380.0
34.8883,380.0
34.8915,640.0
34.8915,640.0
34.89868,540.0
34.90191,720.0
34.90426,440.0
34.90764,1200.0
34.91843,190.0
34.922,80.0
34.922,80.0
34.9326,440.0
34.9326,440.0
34.95223,300.0
34.97593,310.0
34.98089,1100.0
34.9879,1500.0
34.9879,1500.0
34.99,320.0
34.99,320.0
34.99504,220.0
35.00653,380.0
35.01664,350.0
35.01907,190.0
35.04928,340.0
35.0557,690.0
35.06941,900.0
35.0773,4200.0
35.0773,4200.0
35.0773,4200.0
35.08406,380.0
35.09312,280.0
35.10256,310.0
35.1128,410.0
35.1128,410.0
35.12862,440.0
35.1335,930.0
35.13647,580.0
35.14554,850.0
35.1613,340.0
35.1613,340.0
35.16769,420.0
35.18438,310.0
35.19264,310.0
35.19692,1000.0
35.22408,170.0
35.23238,1200.0
35.23859,530.0
35.26175,240.0
35.27694,1700.0
35.28339,190.0
35.28788,90.0
35.29192,640.0
35.30991,300.0
35.34067,630.0
35.34915,410.0
35.36193,320.0
35.36549,160.0
35.36886,270.0
35.37544,200.0
35.3788,640.0
35.3788,640.0
35.38147,180.0
35.41182,720.0
35.41399,570.0
35.43349,630.0
35.44671,480.0
35.44925,3600.0
35.47206,510.0
35.49251,290.0
35.4964,490.0
35.52397,150.0
35.54385,110.0
35.55371,660.0
35.56111,3500.0
35.5935,1700.0
35.5935,1700.0
35.60467,2400.0
35.60896,180.0
35.6208,160.0
35.6208,160.0
35.6328,250.0
35.6328,250.0
35.64095,400.0
35.66209,600.0
35.67753,920.0
35.68761,410.0
35.73707,2800.0
35.755,250.0
35.78218,560.0
35.80144,510.0
35.82475,530.0
35.86178,1300.0
35.87422,300.0
35.89269,310.0
35.90196,270.0
35.90472,590.0
35.9101,210.0
35.9101,210.0
35.9194,180.0
35.9194,180.0
35.93163,180.0
35.94675,3000.0
35.95418,460.0
35.96959,1600.0
36.00278,590.0
36.01119,260.0
36.0726,360.0
36.0726,360.0
36.08856,1300.0
36.11013,1500.0
36.12665,2000.0
36.2309,1800.0
36.25056,1500.0
36.26538,540.0
36.27789,320.0
36.29278,1200.0
36.35405,500.0
36.42291,440.0
36.47726,260.0
36.48986,390.0
36.54849,200.0
36.56252,4000.0
36.61129,2300.0
36.70052,650.0
36.72575,330.0
36.79231,140.0
36.82864,360.0
36.84958,680.0
36.85689,1800.0
36.8898,1100.0
36.8898,1100.0
36.8898,1100.0
36.89859,270.0
36.92258,170.0
36.94746,210.0
36.95082,130.0
37.06159,3800.0
37.1091,310.0
37.12752,1600.0
37.13065,3000.0
37.14725,460.0
37.16432,130.0
37.1763,3200.0
37.1812,320.0
37.20019,760.0
37.21592,500.0
37.24514,2100.0
37.2724,2100.0
37.2724,2100.0
37.2756,1300.0
37.29872,400.0
37.30176,550.0
37.30832,330.0
37.32134,170.0
37.34007,1200.0
37.35211,220.0
37.36052,3100.0
37.36436,640.0
37.36903,210.0
37.37598,540.0
37.39597,2400.0
37.4045,490.0
37.40748,2400.0
37.46042,800.0
37.47699,1600.0
37.51,1700.0
37.58977,180.0
37.71169,240.0
37.74858,110.0
37.7713,370.0
37.7713,370.0
37.77543,210.0
37.77953,73.0
37.84848,470.0
37.90179,360.0
37.91038,160.0
38.04331,360.0
38.0467,440.0
38.0626,240.0
38.0626,240.0
38.09202,190.0
38.1052,2000.0
38.1052,2000.0
38.13459,270.0
38.13801,130.0
38.1678,640.0
38.1678,640.0
38.20324,870.0
38.237,160.0
38.24927,430.0
38.2849,770.0
38.35571,300.0
38.39385,280.0
38.63059,240.0
38.66454,770.0
38.67019,530.0
38.7154,1500.0
38.7154,1500.0
38.71761,1100.0
38.72742,370.0
38.73595,420.0
38.75631,170.0
38.77711,200.0
38.83598,130.0
38.85756,530.0
38.87017,280.0
38.90265,240.0
39.02259,220.0
39.02492,190.0
39.11772,510.0
39.13937,130.0
39.20104,1100.0
39.21593,310.0
39.24576,410.0
39.3155,310.0
39.35429,780.0
39.38582,290.0
39.39137,2700.0
39.43126,2000.0
39.43502,320.0
39.45372,340.0
39.46406,740.0
39.52991,1100.0
39.55266,420.0
39.58451,280.0
40.05876,520.0
40.09692,250.0
40.25152,260.0
42.15473,140.0
99.0878,21.0
100.2418,23.0
100.3241,27.0
101.0344,45.0
102.0387,22.0
102.0712,21.0
102.1541,14.0
102.4466,7.0
102.631,18.0
102.6508,16.0
104.3233,11.0
104.7433,27.0
106.4539,7.0
107.4653,8.0
108.9492,8.0
109.478,10.0
111.5279,14.0
112.0876,76.0
112.4293,76.0
112.5035,20.0
114.4183,39.0
114.4588,16.0
114.9876,12.0
115.0083,22.0
115.1053,40.0
115.1053,40.0
115.1959,35.0
115.2166,12.0
115.2674,66.0
115.7331,9.0
115.7438,12.0
115.8115,16.0
115.8115,16.0
115.8115,16.0
115.9509,10.0
116.3512,18.0
116.3677,12.0
116.3854,33.0
116.6215,12.0
116.6464,14.0
116.7102,37.0
116.8616,16.0
117.0244,13.0
117.1128,19.0
117.1128,19.0
117.144,15.0
117.1702,12.0
117.2458,17.0
117.4193,85.0
117.7169,11.0
117.7592,10.0
117.8218,33.0
117.8797,2.0
117.8905,53.0
117.9225,28.0
118.0248,29.0
118.2607,36.0
118.3759,14.0
118.5941,77.0
118.7314,12.0
118.9537,29.0
118.968,3.0
119.0327,29.0
119.1075,13.0
119.2681,17.0
119.2843,3.0
119.3876,21.0
119.4851,19.0
119.5191,60.0
119.6102,41.0
119.6965,16.0
119.7268,19.0
119.7368,19.0
119.7993,14.0
119.8516,61.0
119.869,14.0
119.939,100.0
120.0939,15.0
120.1077,16.0
120.1316,24.0
120.1586,18.0
120.1636,15.0
120.2032,78.0
120.2261,20.0
120.2419,17.0
120.3773,75.0
120.3864,67.0
120.4725,11.0
120.5306,39.0
120.5445,46.0
120.5551,46.0
120.5796,15.0
120.5796,15.0
120.5951,30.0
120.7338,110.0
120.7446,27.0
120.7984,15.0
120.7984,15.0
120.8903,50.0
120.8961,27.0
120.9094,31.0
120.922,18.0
120.9426,15.0
120.9602,63.0
120.9767,100.0
120.9767,100.0
121.0399,120.0
121.0634,15.0
121.074,27.0
121.0795,23.0
121.1995,15.0
121.2471,13.0
121.2589,40.0
121.2589,40.0
121.2778,100.0
121.2886,26.0
121.3234,15.0
121.3856,54.0
121.394,100.0
121.4161,69.0
121.4161,69.0
121.4407,66.0
121.4589,48.0
121.5071,63.0
121.5071,63.0
121.5276,87.0
121.6149,58.0
121.6537,18.0
121.7061,51.0
121.7105,83.0
121.7501,20.0
121.757,88.0
121.757,88.0
121.7756,130.0
121.806,24.0
121.8725,14.0
121.9886,18.0
122.0317,22.0
122.1113,53.0
122.1871,21.0
122.219,36.0
122.2789,33.0
122.3205,23.0
122.3445,98.0
122.4337,32.0
122.4563,65.0
122.4758,42.0
122.4877,33.0
122.4947,130.0
122.5113,36.0
122.6274,24.0
122.706,18.0
122.7188,27.0
122.8167,17.0
122.8432,74.0
122.9684,17.0
123.0735,22.0
123.0825,45.0
123.1881,100.0
123.2346,17.0
123.2521,200.0
123.2521,200.0
123.2808,180.0
123.3124,81.0
123.3124,81.0
123.4398,140.0
123.4585,110.0
123.4703,30.0
123.5436,16.0
123.577,71.0
123.5838,200.0
123.6274,150.0
123.6274,150.0
123.6274,150.0
123.6702,75.0
123.7206,98.0
123.7335,44.0
123.7979,26.0
123.8118,61.0
123.8216,35.0
123.8555,27.0
123.8705,170.0
123.9058,81.0
123.9556,130.0
123.9671,28.0
123.9776,21.0
123.9959,67.0
124.016,19.0
124.0321,64.0
124.1043,50.0
124.1043,50.0
124.1043,50.0
124.1334,130.0
124.1641,190.0
124.1991,150.0
124.208,210.0
124.2142,83.0
124.2645,43.0
124.3228,150.0
124.3335,46.0
124.3416,41.0
124.3505,120.0
124.3668,21.0
124.4024,110.0
124.4185,250.0
124.4185,250.0
124.4659,18.0
124.4966,140.0
124.4966,140.0
124.4966,140.0
124.5069,81.0
124.5187,230.0
124.5187,230.0
124.5187,230.0
124.5452,200.0
124.5452,200.0
124.5531,67.0
124.5997,12.0
124.6362,22.0
124.6544,49.0
124.683,91.0
124.683,91.0
124.761,110.0
124.7674,49.0
124.805,69.0
124.8495,87.0
124.8826,63.0
124.9442,370.0
124.9534,230.0
125.0043,190.0
125.0043,190.0
125.0397,280.0
125.0397,280.0
125.0397,280.0
125.0685,33.0
125.0782,38.0
125.1293,22.0
125.1837,280.0
125.2169,260.0
125.2169,260.0
125.2347,82.0
125.2394,62.0
125.2478,34.0
125.3097,53.0
125.3205,220.0
125.3205,220.0
125.3205,220.0
125.3301,170.0
125.3494,180.0
125.3494,180.0
125.3996,250.0
125.3996,250.0
125.3996,250.0
125.42,96.0
125.4421,150.0
125.4421,150.0
125.4421,150.0
125.4541,38.0
125.4861,49.0
125.5576,22.0
125.5748,110.0
125.5748,110.0
125.5805,44.0
125.5805,44.0
125.6031,130.0
125.6031,130.0
125.6829,41.0
125.6916,110.0
125.7,33.0
125.7136,42.0
125.7637,240.0
125.8022,78.0
125.8232,65.0
125.8462,38.0
125.8462,38.0
125.8538,65.0
125.9035,47.0
125.9129,150.0
125.9194,75.0
126.0412,190.0
126.0759,21.0
126.0881,14.0
126.112,16.0
126.1341,230.0
126.1441,170.0
126.1575,15.0
126.176,230.0
126.2146,5.0
126.2552,97.0
126.2552,97.0
126.2656,23.0
126.2739,42.0
126.2986,5.0
126.3102,17.0
126.3302,93.0
126.3345,140.0
126.3581,35.0
126.3634,29.0
126.4014,5.0
126.4265,15.0
126.4438,100.0
126.4438,100.0
126.452,270.0
126.452,270.0
126.4751,99.0
126.4932,86.0
126.5669,260.0
126.5875,28.0
126.6135,27.0
126.6407,270.0
126.6705,46.0
126.6864,170.0
126.7038,41.0
126.7304,260.0
126.7304,260.0
126.7304,260.0
126.7812,240.0
126.7896,160.0
126.7996,34.0
126.8181,76.0
126.8757,43.0
126.8883,130.0
126.9254,110.0
126.9383,190.0
126.9628,60.0
127.0205,66.0
127.069,280.0
127.1263,78.0
127.1263,78.0
127.1443,110.0
127.2036,86.0
127.2159,11.0
127.2721,86.0
127.2868,7.0
127.3207,290.0
127.3207,290.0
127.3207,290.0
127.3739,58.0
127.4261,160.0
127.5925,120.0
127.6431,260.0
127.6632,23.0
127.7193,26.0
127.7668,30.0
127.9329,67.0
127.9713,87.0
128.0114,53.0
128.0114,53.0
128.1883,13.0
128.2282,71.0
128.2282,71.0
128.2748,59.0
128.2748,59.0
128.3185,20.0
128.4477,62.0
128.6117,31.0
128.7572,77.0
128.7806,49.0
128.9834,34.0
128.9834,34.0
129.0397,39.0
129.318,12.0
129.5762,53.0
129.6198,53.0
129.8732,89.0
130.0221,26.0
130.0981,82.0
130.2386,62.0
130.332,100.0
130.3971,27.0
130.4869,91.0
130.4869,91.0
130.4869,91.0
130.5068,46.0
130.5068,46.0
130.5936,67.0
130.6241,100.0
130.7599,78.0
130.8646,51.0
130.8646,51.0
130.8646,51.0
130.966,64.0
131.0078,64.0
131.0078,64.0
131.0257,55.0
131.0823,33.0
131.0823,33.0
131.1111,110.0
131.1111,110.0
131.1559,77.0
131.271,100.0
131.271,100.0
131.271,100.0
131.3306,95.0
131.4333,140.0
131.4333,140.0
131.4333,140.0
131.4687,130.0
131.4687,130.0
131.5273,70.0
131.5668,52.0
131.6915,81.0
131.6915,81.0
131.7444,110.0
131.7965,40.0
131.8152,64.0
131.8363,120.0
131.8511,130.0
131.9158,48.0
131.9748,32.0
132.0715,74.0
132.0899,34.0
132.1255,42.0
132.3553,74.0
132.3553,74.0
132.3989,110.0
132.3989,110.0
132.4467,52.0
132.4467,52.0
132.9371,100.0
133.0064,28.0
133.2006,34.0
133.3356,62.0
133.3561,25.0
133.3965,71.0
133.4984,76.0
133.6161,110.0
134.0353,45.0
134.1068,44.0
134.2179,100.0
134.29,34.0
134.3898,46.0
134.774,74.0
134.8679,24.0
135.0061,76.0
135.1414,100.0
135.3129,31.0
135.3873,36.0
135.7498,43.0
136.3922,19.0
137.3406,36.0
137.6188,49.0
137.955,9.0
138.3012,27.0
138.4871,62.0
138.717,16.0
138.9044,30.0
138.9444,29.0
139.0919,51.0
139.167,21.0
